STATE    Wavelength/eV    OSC/a.u,
  1      5.490873148344414      2.6e-07
  2      5.490873148344414      4.309e-06
  3      5.490873148344414      3.583e-06
  4      6.092575709563483      0.0
  5      6.098569389553216      1.0445e-05
  6      6.098569389553216      1.3768e-05
  7      6.107582053675708      0.0
  8      6.834835484543378      0.026429694
  9      7.705650446837593      1.252e-06
  10      7.705650446837593      0.0
  11      7.705650446837593      3.5e-08
  12      8.706735652360736      0.0
  13      8.706735652360736      4.14e-06
  14      8.706735652360736      4.83e-06
  15      9.777911331988713      0.178704778
  16      9.894965338357293      0.007033209
  17      9.894965338357293      0.0
  18      9.894965338357293      3.87e-07
  19      9.94257543621627      0.109176466
  20      10.605980811772188      0.0
  21      10.605980811772188      1.142e-06
  22      10.605980811772188      7.6852e-05
  23      10.904478072965425      2.487e-06
  24      10.904478072965425      1.6286e-05
  25      10.904478072965425      6e-09
  26      10.904478072965425      0.0
  27      10.904478072965425      1.9174e-05
  28      10.904478072965425      1.494e-06
  29      11.060117367494815      0.0
  30      11.933004397460719      0.466183587
  31      11.979122288851872      0.268177608
  32      12.060692187705923      0.0
  33      12.060692187705923      3.5309e-05
  34      12.060692187705923      0.000191071
  35      12.119639852357466      0.000199745
  36      12.119639852357466      2.954e-06
  37      12.119639852357466      0.0
  38      12.119639852357466      0.029325815
  39      12.498378597743637      0.026950168
  40      13.59472759754571      0.009735732
