STATE    Wavelength/eV    OSC/a.u,
  1      6.098569389553216      0.0
  2      6.834835484543378      0.059002977
  3      9.777911331988713      0.135886353
  4      9.94257543621627      0.026804204
  5      11.060117367494815      0.0
  6      11.933004397460719      0.315953405
  7      11.979122288851872      0.140258872
  8      12.119639852357466      0.008369058
  9      12.498378597743637      0.007681208
  10      13.59472759754571      0.004467277
  11      5.490873148344414      0.0
  12      6.098569389553216      0.0
  13      7.705650446837593      0.0
  14      8.706735652360736      0.0
  15      9.894965338357293      0.0
  16      10.605980811772188      0.0
  17      10.904478072965425      0.0
  18      10.904478072965425      0.0
  19      12.060692187705923      0.0
  20      12.119639852357466      0.0
