STATE    Wavelength/eV    OSC/a.u,
  1      1.9210399084229453      2.5e-08
  2      6.140857636930009      0.000727552
  3      6.277666617195791      0.008894001
  4      6.293599781198826      0.018477529
  5      7.643891226240252      0.010979846
  6      8.077128057955496      8.9e-08
  7      8.151473746851867      0.069115347
  8      8.287694899038561      0.017731886
  9      9.663594363960785      0.026920725
  10      9.910784627467377      4.14e-07
  11      1.364559934950659      0.0
  12      2.522048732498309      0.0
  13      5.129661385586135      0.0
  14      5.599996191942949      0.0
  15      7.375604740607786      0.0
  16      7.375604740607786      0.0
  17      7.597053657452015      0.0
  18      7.77328625013272      0.0
  19      9.343173752043473      0.0
  20      9.471651313186927      0.0
