STATE    Wavelength/eV    OSC/a.u,
  1      1.9210399084229453      0.0
  2      6.140857636930009      0.019825908
  3      6.277666617195791      0.271383965
  4      6.293599781198826      0.00068039
  5      7.643891226240252      0.004543457
  6      8.077128057955496      4.29e-07
  7      8.151473746851867      0.16887541
  8      8.287694899038561      0.03164845
  9      9.663594363960785      0.016301669
  10      9.910784627467377      4.64e-07
  11      1.364559934950659      0.0
  12      2.522048732498309      0.0
  13      5.129661385586135      0.0
  14      5.599996191942949      0.0
  15      7.375604740607786      0.0
  16      7.375604740607786      0.0
  17      7.597053657452015      0.0
  18      7.77328625013272      0.0
  19      9.343173752043473      0.0
  20      9.471651313186927      0.0
