STATE    Wavelength/eV    OSC/a.u,
  1      8.040461458470615      0.044570116
  2      9.693816707554095      0.0
  3      10.35788769336816      0.112913794
  4      12.119639852357466      0.05589114
  5      14.041213554882999      0.255280109
  6      16.228261215918437      0.099398952
  7      16.270855077377544      0.0
  8      17.340407788757606      0.009847635
  9      17.968683433277807      0.078209549
  10      19.133320322471743      0.012080541
  11      7.353731654188427      0.0
  12      9.280233210300665      0.0
  13      9.428434653202805      0.0
  14      11.15966837890341      0.0
  15      12.941953621045604      0.0
  16      14.433517542446667      0.0
  17      15.997924605111855      0.0
  18      16.845640718697947      0.0
  19      17.14853605665517      0.0
  20      17.172287491636688      0.0
