STATE    Wavelength/eV    OSC/a.u,
  1      9.701401853647644      0.0
  2      9.701401853647644      6e-09
  3      9.7166078126659      1.6101e-05
  4      9.7166078126659      1.6109e-05
  5      9.731861514098656      0.0
  6      9.731861514098656      8.393e-06
  7      10.383912536818833      0.031283201
  8      10.383912536818833      0.031281689
  9      12.79503773886655      0.0
  10      12.79503773886655      1.456e-06
  11      12.79503773886655      1.477e-06
  12      14.812893152881347      0.235455702
  13      18.58829320683911      0.0
  14      18.58829320683911      9e-09
  15      18.616203556999533      4.4446e-05
  16      18.616203556999533      4.4469e-05
  17      18.616203556999533      0.0
  18      18.616203556999533      1.081e-06
  19      19.192556608299828      0.06576895
  20      19.192556608299828      0.065770156
  21      21.085699947213755      7.11e-07
  22      21.085699947213755      7.28e-07
  23      21.085699947213755      0.0
  24      21.637681621224587      0.0
  25      21.637681621224587      2.248e-06
  26      21.637681621224587      2.27e-06
  27      22.100519730769495      0.0
  28      22.100519730769495      0.0
  29      22.100519730769495      0.0
  30      22.100519730769495      0.0
  31      22.100519730769495      4.79e-07
  32      22.100519730769495      4.51e-07
  33      22.219339729322023      1.16e-06
  34      22.219339729322023      0.0
  35      22.219339729322023      0.0
  36      22.707676866230198      0.001098839
  37      22.707676866230198      0.001098558
  38      23.002581760596826      0.0
  39      23.131327554033      0.0
  40      23.17456368030222      0.0
