STATE    Wavelength/eV    OSC/a.u,
  1      5.747979401465781      0.049904258
  2      5.747979401465781      0.049903881
  3      8.492049019836772      0.123117585
  4      8.492049019836772      0.123116372
  5      8.780730572919044      0.139208977
  6      8.780730572919044      0.139208814
  7      8.951907270008439      0.0
  8      8.958375411099485      0.0
  9      9.023574649899336      0.0
  10      9.371422198761667      0.020931113
  11      5.013502454088834      0.0
  12      5.013502454088834      0.0
  13      7.459922725007033      0.0
  14      8.140769250795593      0.0
  15      8.140769250795593      0.0
  16      8.646019225217355      0.0
  17      8.646019225217355      0.0
  18      8.658094671062631      0.0
  19      8.8370574262022      0.0
  20      8.8370574262022      0.0
