STATE    Wavelength/eV    OSC/a.u,
  1      4.074397492264768      0.000239801
  2      4.077077135469151      1.395e-06
  3      4.086483707634044      8.354e-06
  4      4.652304528691065      0.0
  5      5.2006676044302385      0.0
  6      5.202850007957066      4.2609e-05
  7      5.205034243896595      0.000403414
  8      5.7135445018256625      0.190335157
  9      6.447421512720586      0.000617087
  10      6.450776050448329      0.0
  11      6.4608606404177635      0.000518118
  12      6.941988560448873      0.000318916
  13      6.945877629670413      1.352e-06
  14      6.949771058835027      0.0
  15      7.0285666490712515      0.000162244
  16      7.040540357161663      0.000712979
  17      7.044540664182777      0.000213397
  18      7.0847951822638215      0.0
  19      7.204178715259552      0.000135479
  20      7.204178715259552      0.0
  21      7.212560540408195      0.004136946
  22      7.225169911982336      0.000199309
  23      7.233600682007986      0.001191722
  24      7.250521385357712      9.7719e-05
  25      7.250521385357712      0.0
  26      7.450956471731783      1.0044e-05
  27      7.450956471731783      0.002509255
  28      7.45543690256265      0.0
  29      7.662788361533799      0.004401531
  30      8.189162198785791      0.169284737
  31      8.29323850766668      0.002293625
  32      8.360344955469783      0.0
  33      8.360344955469783      5.08e-07
  34      8.480431989713878      0.003490857
  35      8.664145051685317      0.159336659
  36      9.329113294929787      0.0
  37      9.336138229639824      4.59e-07
  38      9.350219886094788      0.007425369
  39      9.966552708168559      0.00497078
  40      10.112880561958963      0.030026589
