STATE    Wavelength/eV    OSC/a.u,
  1      4.074397492264768      1.595e-05
  2      4.077077135469151      0.000377124
  3      4.086483707634044      9.5194e-05
  4      4.652304528691065      0.0
  5      5.2006676044302385      0.0
  6      5.202850007957066      0.000207639
  7      5.205034243896595      0.001139894
  8      5.7135445018256625      0.039568198
  9      6.447421512720586      0.000561506
  10      6.450776050448329      0.0
  11      6.4608606404177635      0.000126988
  12      6.941988560448873      0.000495078
  13      6.945877629670413      2.6721e-05
  14      6.949771058835027      0.0
  15      7.0285666490712515      0.000305002
  16      7.040540357161663      0.000439045
  17      7.044540664182777      0.000425314
  18      7.0847951822638215      0.0
  19      7.204178715259552      0.000224615
  20      7.204178715259552      0.0
  21      7.212560540408195      1.9057e-05
  22      7.225169911982336      0.000209899
  23      7.233600682007986      0.000583718
  24      7.250521385357712      6.9143e-05
  25      7.250521385357712      0.0
  26      7.450956471731783      0.000428625
  27      7.450956471731783      0.003262756
  28      7.45543690256265      0.0
  29      7.662788361533799      0.006215643
  30      8.189162198785791      0.567187817
  31      8.29323850766668      0.072837358
  32      8.360344955469783      0.0
  33      8.360344955469783      0.0003854
  34      8.480431989713878      0.119830606
  35      8.664145051685317      0.161702245
  36      9.329113294929787      0.0
  37      9.336138229639824      0.000398256
  38      9.350219886094788      0.008704737
  39      9.966552708168559      0.013894108
  40      10.112880561958963      0.076179786
