STATE    Wavelength/eV    OSC/a.u,
  1      3.0872488966538065      6.226e-05
  2      3.0872488966538065      6.226e-05
  3      5.414144789939602      0.0
  4      5.414144789939602      0.0
  5      9.966552708168559      2.134908949
  6      13.119991078266336      0.083342888
  7      13.119991078266336      0.083342888
  8      13.403666561039662      0.0
  9      13.403666561039662      0.0
  10      13.579837424930655      0.0
  11      2.2624802133141766      0.0
  12      2.2624802133141766      0.0
  13      4.673347745556611      0.0
  14      4.673347745556611      0.0
  15      5.818109605331623      0.0
  16      12.8747576001679      0.0
  17      12.8747576001679      0.0
  18      12.955477083554532      0.0
  19      13.260311838461698      0.0
  20      13.260311838461698      0.0
