STATE    Wavelength/eV    OSC/a.u,
  1      4.779642085181838      2.71e-07
  2      4.779642085181838      0.000187189
  3      4.781485371755375      0.000165418
  4      5.337232702953804      0.0
  5      5.44744796527315      0.000349685
  6      5.44744796527315      0.000481816
  7      5.459441465857195      0.0
  8      6.12568753407198      0.009559414
  9      7.174995120926902      3.7823e-05
  10      7.174995120926902      0.0
  11      7.174995120926902      1.6e-08
  12      7.907137480205158      0.0
  13      7.907137480205158      4.6594e-05
  14      7.907137480205158      5.6218e-05
  15      9.017012050153955      0.009033844
  16      9.03014680914908      0.0
  17      9.03014680914908      1.3967e-05
  18      9.204448083861685      0.172677985
  19      9.336138229639824      0.128033534
  20      9.686243413251319      0.0
  21      9.686243413251319      9.496e-06
  22      9.693816707554095      0.004399564
  23      10.62415729988148      0.000600277
  24      10.62415729988148      6.3e-08
  25      10.62415729988148      0.001114991
  26      10.753158342551334      0.0
  27      11.109669864661011      0.004193742
  28      11.119633694136043      0.0
  29      11.119633694136043      0.002243706
  30      11.291795600147257      0.846963532
  31      11.374671164185035      0.649136524
  32      11.437630598673143      0.005358997
  33      11.469372404219879      0.0
  34      11.469372404219879      0.001115658
  35      11.511969887615308      0.011094871
  36      12.548979320811425      0.001890195
  37      12.561693585574151      0.0
  38      12.561693585574151      0.000156818
  39      12.928458361795295      0.046677942
  40      13.302995245667047      0.174365181
