STATE    Wavelength/eV    OSC/a.u,
  1      5.986669033781597      0.0
  2      5.986669033781597      0.0
  3      6.1105921976154205      0.001246412
  4      6.1105921976154205      0.001246412
  5      6.296796124409187      0.0
  6      6.309614030005948      0.000666656
  7      6.887995316089826      0.026605093
  8      6.887995316089826      0.026605093
  9      8.868663497111363      0.0
  10      8.868663497111363      0.00014913
  11      8.868663497111363      0.00014913
  12      11.9907075135026      0.0
  13      11.9907075135026      0.0
  14      12.013945318761325      0.496931356
  15      12.107804266564148      0.004981661
  16      12.107804266564148      0.004981661
  17      12.324444899564302      0.0
  18      12.324444899564302      0.008462202
  19      12.690267726675218      0.049050045
  20      12.690267726675218      0.049050045
  21      13.491176897673217      0.0
  22      13.491176897673217      0.000263418
  23      13.491176897673217      0.000263418
  24      13.837490590359028      0.0
  25      13.837490590359028      0.0
  26      13.899542117670054      4.8e-08
  27      13.899542117670054      4.8e-08
  28      14.02532982914218      0.000434399
  29      14.02532982914218      0.000434399
  30      14.202052198123354      0.0
  31      14.202052198123354      0.0
  32      14.300336296380262      0.007651598
  33      14.300336296380262      0.007651598
  34      14.41673438251359      0.0
  35      14.501042770715424      5.9002e-05
  36      14.552102780471465      0.0
  37      14.552102780471465      0.0
  38      14.569202783738765      0.0
  39      14.866176941201063      0.064670658
  40      14.866176941201063      0.064670658
