STATE    Wavelength/eV    OSC/a.u,
  1      6.857517460708897      0.028046169
  2      6.857517460708897      0.028046169
  3      12.002315168404344      0.506793499
  4      12.625653328881555      0.054404156
  5      12.625653328881555      0.054404156
  6      14.433517542446667      0.0
  7      14.433517542446667      0.0
  8      14.467201364015972      0.0
  9      14.795216669405356      0.072863579
  10      14.795216669405356      0.072863579
  11      6.140857636930009      0.0
  12      6.140857636930009      0.0
  13      8.843360605536155      0.0
  14      12.143380576847884      0.0
  15      12.143380576847884      0.0
  16      13.491176897673217      0.0
  17      13.962152667749649      0.0
  18      13.962152667749649      0.0
  19      14.31684938679179      0.0
  20      14.31684938679179      0.0
