STATE    Wavelength/eV    OSC/a.u,
  1      5.986669033781597      0.0
  2      5.986669033781597      0.0
  3      6.1105921976154205      7.2171e-05
  4      6.1105921976154205      7.2171e-05
  5      6.296796124409187      0.0
  6      6.309614030005948      0.002082805
  7      6.887995316089826      0.002047042
  8      6.887995316089826      0.002047042
  9      8.868663497111363      0.0
  10      8.868663497111363      5.8785e-05
  11      8.868663497111363      5.8785e-05
  12      11.9907075135026      0.0
  13      11.9907075135026      0.0
  14      12.013945318761325      0.829720246
  15      12.107804266564148      0.010097042
  16      12.107804266564148      0.010097042
  17      12.324444899564302      0.0
  18      12.324444899564302      0.013863347
  19      12.690267726675218      0.109956151
  20      12.690267726675218      0.109956151
  21      13.491176897673217      0.0
  22      13.491176897673217      0.00034855
  23      13.491176897673217      0.00034855
  24      13.837490590359028      0.0
  25      13.837490590359028      0.0
  26      13.899542117670054      6.9e-08
  27      13.899542117670054      6.9e-08
  28      14.02532982914218      0.000624627
  29      14.02532982914218      0.000624627
  30      14.202052198123354      0.0
  31      14.202052198123354      0.0
  32      14.300336296380262      0.014247846
  33      14.300336296380262      0.014247846
  34      14.41673438251359      0.0
  35      14.501042770715424      2.6627e-05
  36      14.552102780471465      0.0
  37      14.552102780471465      0.0
  38      14.569202783738765      0.0
  39      14.866176941201063      0.129217917
  40      14.866176941201063      0.129217918
