STATE    Wavelength/eV    OSC/a.u,
  1      1.0804698535042865      1.3818e-05
  2      1.081129365971546      1.8207e-05
  3      1.1343450657787455      0.002855886
  4      1.6033093972535482      1e-09
  5      2.1074947423018338      2.804e-06
  6      2.1103645223764573      2.586e-06
  7      2.1295760166543607      0.0
  8      4.54319954890498      0.00620704
  9      4.569993206399443      0.000641415
  10      4.569993206399443      1e-09
  11      4.69458219195823      0.0
  12      4.69458219195823      0.000283734
  13      4.696360442788518      3.1838e-05
  14      5.280405267871247      0.008498481
  15      5.507948275860368      0.020386215
  16      5.674321084192992      0.246187562
  17      6.217849332478279      1e-08
  18      6.217849332478279      0.000192384
  19      6.217849332478279      9.194e-06
  20      6.467601235765096      0.169145163
  21      6.515182117163262      2.357e-06
  22      6.518607554659142      0.005593932
  23      6.525469246821941      0.003452062
  24      6.53234539987444      9.162e-06
  25      6.53234539987444      3.578e-06
  26      6.53234539987444      1.58e-06
  27      6.7676809874245025      0.009795629
  28      6.782489917375102      0.000111455
  29      6.782489917375102      1.497e-06
  30      6.8310697349651175      6.8565e-05
  31      6.838605388285542      0.017750213
  32      7.162560120717324      0.060605832
  33      7.179149721460155      2.655e-06
  34      7.179149721460155      6.8344e-05
  35      7.179149721460155      0.002392036
  36      7.384390452031976      1e-09
  37      7.384390452031976      0.000152373
  38      7.384390452031976      1.4861e-05
  39      7.72485456010074      0.037209625
  40      7.857028877669003      3e-09
