STATE    Wavelength/eV    OSC/a.u,
  1      1.0804698535042865      4.6847e-05
  2      1.081129365971546      0.000205033
  3      1.1343450657787455      0.000238198
  4      1.6033093972535482      5e-08
  5      2.1074947423018338      1.41e-07
  6      2.1103645223764573      6.0842e-05
  7      2.1295760166543607      4e-09
  8      4.54319954890498      0.000626792
  9      4.569993206399443      0.000295829
  10      4.569993206399443      0.0
  11      4.69458219195823      0.0
  12      4.69458219195823      0.000150107
  13      4.696360442788518      0.000175777
  14      5.280405267871247      0.022042814
  15      5.507948275860368      0.008861891
  16      5.674321084192992      0.016712949
  17      6.217849332478279      6.7e-08
  18      6.217849332478279      0.001290121
  19      6.217849332478279      0.000172794
  20      6.467601235765096      0.183962123
  21      6.515182117163262      1.516e-06
  22      6.518607554659142      0.002544538
  23      6.525469246821941      7.7057e-05
  24      6.53234539987444      8.31e-07
  25      6.53234539987444      7.87e-06
  26      6.53234539987444      9.4146e-05
  27      6.7676809874245025      0.015505537
  28      6.782489917375102      4.8005e-05
  29      6.782489917375102      3.448e-06
  30      6.8310697349651175      0.000118044
  31      6.838605388285542      0.029476736
  32      7.162560120717324      0.018794346
  33      7.179149721460155      3.7e-08
  34      7.179149721460155      1.69e-06
  35      7.179149721460155      0.003036929
  36      7.384390452031976      1e-09
  37      7.384390452031976      0.000367214
  38      7.384390452031976      0.000166353
  39      7.72485456010074      0.004397753
  40      7.857028877669003      1.7e-08
