STATE    Wavelength/eV    OSC/a.u,
  1      7.141930627282078      8.6e-08
  2      7.141930627282078      1.73e-07
  3      7.179149721460155      8.3579e-05
  4      7.179149721460155      8.3566e-05
  5      7.216758771223334      0.0
  6      7.216758771223334      2.6792e-05
  7      7.95788932539261      0.036204636
  8      7.95788932539261      0.036204578
  9      10.031061139936641      0.0
  10      10.031061139936641      8.459e-06
  11      10.031061139936641      8.215e-06
  12      12.38600556339829      5.7e-08
  13      12.38600556339829      1.15e-07
  14      12.423238045051791      0.000126431
  15      12.423238045051791      0.000126445
  16      12.4606950441826      0.000708212
  17      12.4606950441826      0.0
  18      12.677291992803362      0.292440208
  19      13.119991078266336      0.043146743
  20      13.119991078266336      0.043148485
  21      14.552102780471465      0.0
  22      14.552102780471465      3.525e-06
  23      14.552102780471465      4.084e-06
  24      14.973902861064841      0.0
  25      14.973902861064841      0.0
  26      14.973902861064841      1.63e-07
  27      15.01015928445725      7.6e-08
  28      15.01015928445725      2.17e-07
  29      15.028353416923258      4e-09
  30      15.028353416923258      9e-09
  31      15.04659170990496      1.2449e-05
  32      15.04659170990496      4.4791e-05
  33      15.10157316560498      0.00028767
  34      15.10157316560498      1.84e-07
  35      15.10157316560498      4.39e-07
  36      15.47864115975242      0.024918481
  37      15.47864115975242      0.024665365
  38      15.59546109303357      0.0
  39      15.59546109303357      0.0
  40      15.59546109303357      0.0
